T (C)	Phases vol%-LIQUID-1.0(C/s)	Phases vol%-AUSTENITE-1.0(C/s)	Phases vol%-FERRITE-1.0(C/s)	Phases vol%-MARTENSITE-1.0(C/s)	Phases vol%-BAINITE-1.0(C/s)	Density (g/(cm)^3)-TOTAL-1.0(C/s)	Molar volume (cm^3)-TOTAL-1.0(C/s)	Linear expansion (%)-  -1.0(C/s)	Average expansion coeff. (10e-6 1/K)-  -1.0(C/s)	Thermal conductivity (W/(m*K))-TOTAL-1.0(C/s)	Electrical resistivity (10e-6 Ohm*m)-TOTAL-1.0(C/s)	Electrical conductivity (10e6 1/(Ohm*m))-TOTAL-1.0(C/s)	Young's modulus (GPa)-TOTAL-1.0(C/s)	Bulk modulus (GPa)-TOTAL-1.0(C/s)	Shear modulus(GPa)-TOTAL-1.0(C/s)	Poisson's ratio-TOTAL-1.0(C/s)	Liquid viscosity (mPa s)-  -1.0(C/s)	Total viscosity (mPa s)-  -1.0(C/s)	Yield Stress (MPa)-TOTAL-1.0(C/s)	Tensile Stress (MPa)-TOTAL-1.0(C/s)	Hardness (HRC)-TOTAL-1.0(C/s)	Enthalpy (J/g)-TOTAL-1.0(C/s)	Specific heat (J/(g K))-TOTAL-1.0(C/s)	Latent heat (J/g)-FERRITE-1.0(C/s)	Latent heat (J/g)-BAINITE_PEARLITE-1.0(C/s)	Latent heat (J/g)-MARTENSITE-1.0(C/s)	Latent heat (J/g)-SOLID-1.0(C/s)	TIME(s)-Cooling_1.0(C/s)
1595.0	100.0	 	 	 	 	6.88588	8.03061	0.0	 	35.52218	1.71368	0.58354	0.0	97.59897	0.0	0.49957	5.64819	5.64819	 	 	 	1345.08185	0.82705	 	 	 	0.0	0.0
1590.0	100.0	 	 	 	 	6.88996	8.02585	-0.0197204	39.44071	35.42881	1.7136	0.58357	0.0	97.77598	0.0	0.49957	5.69069	5.69069	 	 	 	1340.94667	0.82704	 	 	 	0.0	5.0
1585.0	100.0	 	 	 	 	6.89403	8.02112	-0.0393884	39.38844	35.33544	1.71352	0.5836	0.0	97.95299	0.0	0.49957	5.73374	5.73374	 	 	 	1336.81154	0.82703	 	 	 	0.0	10.0
1580.0	100.0	 	 	 	 	6.89809	8.01639	-0.0590043	39.3362	35.24207	1.71343	0.58362	0.0	98.13	0.0	0.49957	5.77735	5.77735	 	 	 	1332.67645	0.82702	 	 	 	0.0	15.0
1575.0	100.0	 	 	 	 	6.90215	8.01168	-0.0785679	39.28396	35.1487	1.71335	0.58365	0.0	98.30701	0.0	0.49957	5.82153	5.82153	 	 	 	1328.54141	0.82701	 	 	 	0.0	20.0
1570.0	100.0	 	 	 	 	6.9062	8.00698	-0.0980793	39.23172	35.05532	1.71326	0.58368	0.0	98.48402	0.0	0.49957	5.8663	5.8663	 	 	 	1324.40641	0.827	 	 	 	0.0	25.0
1565.0	100.0	 	 	 	 	6.91025	8.00229	-0.11754	39.17948	34.96195	1.71318	0.58371	0.0	98.66103	0.0	0.49957	5.91165	5.91165	 	 	 	1320.27146	0.82699	 	 	 	0.0	30.0
1560.0	100.0	 	 	 	 	6.91429	7.99761	-0.13695	39.12725	34.86858	1.7131	0.58374	0.0	98.83804	0.0	0.49957	5.9576	5.9576	 	 	 	1316.13656	0.82698	 	 	 	0.0	35.0
1555.0	100.0	 	 	 	 	6.91832	7.99295	-0.1563	39.07501	34.7752	1.71301	0.58377	0.0	99.01505	0.0	0.49957	6.00417	6.00417	 	 	 	1312.00171	0.82697	 	 	 	0.0	40.0
1550.0	100.0	 	 	 	 	6.92235	7.9883	-0.1756	39.02276	34.68183	1.71292	0.5838	0.0	99.19207	0.0	0.49957	6.05135	6.05135	 	 	 	1307.8669	0.82696	 	 	 	0.0	45.0
1545.0	100.0	 	 	 	 	6.92637	7.98366	-0.19485	38.97053	34.58845	1.71284	0.58383	0.0	99.36908	0.0	0.49957	6.09918	6.09918	 	 	 	1303.73214	0.82695	 	 	 	0.0	50.0
1540.0	100.0	 	 	 	 	6.93039	7.97904	-0.21405	38.91828	34.49508	1.71275	0.58386	0.0	99.54609	0.0	0.49957	6.14764	6.14764	 	 	 	1299.59743	0.82694	 	 	 	0.0	55.0
1535.0	100.0	 	 	 	 	6.9344	7.97442	-0.2332	38.86605	34.4017	1.71266	0.58389	0.0	99.7231	0.0	0.49957	6.19676	6.19676	 	 	 	1295.47984	0.82551	 	 	 	0.0	60.0
1530.0	100.0	 	 	 	 	6.9384	7.96982	-0.25229	38.81381	34.30832	1.71258	0.58392	0.0	99.90011	0.0	0.49957	6.24655	6.24655	 	 	 	1291.35832	0.82306	 	 	 	0.0	65.0
1525.0	100.0	 	 	 	 	6.94239	7.96524	-0.27133	38.76157	34.21494	1.71249	0.58395	0.0	100.07712	0.0	0.49957	6.29703	6.29703	 	 	 	1287.24898	0.82064	 	 	 	0.0	70.0
1520.0	100.0	 	 	 	 	6.94638	7.96066	-0.29032	38.70933	34.12156	1.7124	0.58398	0.0	100.25413	0.0	0.49957	6.34819	6.34819	 	 	 	1283.1517	0.81823	 	 	 	0.0	75.0
1515.0	100.0	 	 	 	 	6.95037	7.9561	-0.30926	38.65709	34.02818	1.71231	0.58401	0.0	100.43114	0.0	0.49957	6.40006	6.40006	 	 	 	1279.06639	0.81585	 	 	 	0.0	80.0
1510.0	100.0	 	 	 	 	6.95434	7.95155	-0.32814	38.60485	33.9348	1.71222	0.58404	0.0	100.60815	0.0	0.49957	6.45264	6.45264	 	 	 	1274.99294	0.81349	 	 	 	0.0	85.0
1505.0	93.71943	 	6.28057	 	 	6.97388	7.92927	-0.4206	46.73348	33.94907	1.7067	0.58592	5.01092E-4	96.59894	1.68145E-4	0.49006	6.4866	7.0955	 	 	 	1255.14402	10.65402	 	 	 	0.0	90.0
1500.0	76.91186	 	23.08814	 	 	7.01914	7.87815	-0.6328	66.61063	34.14543	1.69212	0.59098	0.0927336	85.64247	0.0316593	0.46456	6.47668	15.21111	 	 	 	1209.44655	7.81932	 	 	 	15.78721	95.0
1495.0	64.45325	 	35.54675	 	 	7.0532	7.8401	-0.79073	79.07327	34.27028	1.6812	0.59481	0.52794	77.65843	0.18261	0.44558	6.46756	47.16211	 	 	 	1175.18201	5.99966	 	 	 	57.43463	100.0
1490.0	54.89925	 	45.10075	 	 	7.07979	7.81066	-0.91294	86.94649	34.3481	1.67265	0.59785	1.3861	71.65794	0.48433	0.43096	6.45928	109.78001	 	 	 	1148.43031	4.77252	 	 	 	87.66066	105.0
1485.0	41.48237	43.93946	14.57817	 	 	7.12737	7.75852	-1.12937	102.66971	34.4993	1.66059	0.60219	2.49984	79.56905	0.87715	0.42498	6.46065	422.59634	 	 	 	1102.58763	21.65841	 	 	 	110.38531	110.0
1480.0	31.24505	68.75495	 	 	 	7.16206	7.72093	-1.28538	111.77191	34.59789	1.65115	0.60564	12.64158	85.46645	4.45971	0.41731	6.45189	894.92126	 	 	 	1069.38628	4.42159	 	 	 	152.21228	115.0
1475.0	24.8053	75.1947	 	 	 	7.18242	7.69905	-1.37622	114.68478	34.62927	1.64495	0.60792	18.28818	84.50278	6.48848	0.40928	6.44068	1312.98028	 	 	 	1049.62344	3.54445	 	 	 	181.40917	120.0
1470.0	19.78801	80.21199	 	 	 	7.19881	7.68152	-1.44897	115.91778	34.63749	1.63986	0.60981	23.93746	83.90865	8.53129	0.40292	6.43206	1753.0767	 	 	 	1033.64645	2.89462	 	 	 	197.1787	125.0
1465.0	15.85097	84.14903	 	 	 	7.21218	7.66728	-1.50808	116.0062	34.62868	1.63557	0.61141	29.30084	83.58441	10.48077	0.39784	6.42563	2198.44774	 	 	 	1020.50599	2.40188	 	 	 	209.17344	130.0
1460.0	11.38484	88.61516	 	 	 	7.23108	7.6478	-1.58896	117.70078	34.62568	1.63101	0.61312	36.42086	83.22501	13.08077	0.39215	6.42641	2786.95527	 	 	 	1005.85205	3.36943	 	 	 	218.34261	135.0
1455.0	6.78001	93.21999	 	 	 	7.25251	7.62604	-1.67926	119.94718	34.6225	1.62645	0.61484	45.08421	82.90355	16.26078	0.38629	6.43889	3508.42002	 	 	 	990.90499	2.6942	 	 	 	229.03612	140.0
1450.0	3.25637	96.74363	 	 	 	7.26906	7.60928	-1.74885	120.6102	34.6038	1.62262	0.61629	52.8405	82.80811	19.122	0.38167	6.45968	4202.84474	 	 	 	978.92913	2.18201	 	 	 	240.03353	145.0
1445.0	0.59367	99.40633	 	 	 	7.28182	7.59635	-1.8025	120.16687	34.57379	1.61932	0.61754	59.48938	82.87773	21.58457	0.37805	6.48901	4858.35268	 	 	 	969.26167	1.77764	 	 	 	248.07043	150.0
1440.0	 	100.0	 	 	 	7.2867	7.59137	-1.82319	117.62511	34.51935	1.61715	0.61837	61.47131	83.30177	22.32056	0.37701	 	5226.83337	 	 	 	964.42562	0.70084	 	 	 	253.80952	155.0
1435.0	 	100.0	 	 	 	7.28938	7.58858	-1.83473	114.67071	34.458	1.6153	0.61908	62.00393	83.82359	22.51876	0.37672	 	5513.80034	 	 	 	960.9299	0.69987	 	 	 	 	160.0
1430.0	 	100.0	 	 	 	7.29206	7.58581	-1.84625	111.89401	34.39664	1.61345	0.61979	62.53623	84.34243	22.71692	0.37642	 	5818.34911	 	 	 	957.43894	0.699	 	 	 	 	165.0
1425.0	 	100.0	 	 	 	7.29474	7.58304	-1.85775	109.27939	34.33528	1.61158	0.62051	63.06819	84.8583	22.91505	0.37613	 	6141.66401	 	 	 	953.95272	0.69805	 	 	 	 	170.0
1420.0	 	100.0	 	 	 	7.29741	7.58027	-1.86923	106.813	34.27392	1.60972	0.62123	63.59982	85.37123	23.11314	0.37584	 	6485.01642	 	 	 	950.47122	0.6971	 	 	 	 	175.0
1415.0	 	100.0	 	 	 	7.30008	7.57751	-1.88069	104.48251	34.21255	1.60784	0.62195	64.13112	85.88124	23.3112	0.37554	 	6849.77167	 	 	 	946.99439	0.69616	 	 	 	 	180.0
1410.0	 	100.0	 	 	 	7.30275	7.57476	-1.89212	102.27696	34.15118	1.60596	0.62268	64.66209	86.38836	23.50923	0.37525	 	7237.3959	 	 	 	943.52223	0.69523	 	 	 	 	185.0
1405.0	 	100.0	 	 	 	7.30541	7.57201	-1.90354	100.18651	34.0898	1.60407	0.62341	65.19273	86.8926	23.70722	0.37496	 	7649.46489	 	 	 	940.05472	0.6943	 	 	 	 	190.0
1400.0	 	100.0	 	 	 	7.30808	7.56926	-1.91495	98.20233	34.02842	1.60218	0.62415	65.72304	87.39399	23.90517	0.37466	 	8087.6722	 	 	 	936.59182	0.69337	 	 	 	 	195.0
1395.0	 	100.0	 	 	 	7.31073	7.56652	-1.92633	96.31649	33.96703	1.60028	0.62489	66.25301	87.89254	24.10309	0.37437	 	8553.83911	 	 	 	933.13351	0.69245	 	 	 	 	200.0
1390.0	 	100.0	 	 	 	7.31339	7.56378	-1.9377	94.52181	33.90564	1.59837	0.62564	66.78266	88.38828	24.30098	0.37407	 	9049.92488	 	 	 	929.67978	0.69153	 	 	 	 	205.0
1385.0	 	100.0	 	 	 	7.31604	7.56104	-1.94905	92.81182	33.84424	1.59646	0.62639	67.31197	88.88123	24.49883	0.37378	 	9578.03819	 	 	 	926.23061	0.69062	 	 	 	 	210.0
1380.0	 	100.0	 	 	 	7.3187	7.55831	-1.96038	91.18062	33.78285	1.59453	0.62714	67.84095	89.37141	24.69665	0.37348	 	10140.44865	 	 	 	922.78596	0.68971	 	 	 	 	215.0
1375.0	 	100.0	 	 	 	7.32135	7.55559	-1.9717	89.62288	33.72145	1.59261	0.6279	68.3696	89.85884	24.89443	0.37319	 	10739.60102	 	 	 	919.34582	0.68881	 	 	 	 	220.0
1370.0	 	100.0	 	 	 	7.32399	7.55286	-1.98301	88.13371	33.66004	1.59067	0.62867	68.89793	90.34353	25.09218	0.3729	 	11378.12989	 	 	 	915.91018	0.68791	 	 	 	 	225.0
1365.0	 	100.0	 	 	 	7.32664	7.55014	-1.9943	86.70866	33.59863	1.58873	0.62943	69.42592	90.82552	25.28989	0.3726	 	12058.87385	 	 	 	912.47901	0.68701	 	 	 	 	230.0
1360.0	 	100.0	 	 	 	7.32928	7.54743	-2.00558	85.34367	33.53722	1.58678	0.63021	69.95358	91.30482	25.48757	0.37231	 	12784.89501	 	 	 	909.0523	0.68612	 	 	 	 	235.0
1355.0	 	100.0	 	 	 	7.33193	7.54471	-2.01684	84.03499	33.47581	1.58482	0.63098	70.4809	91.78144	25.68521	0.37201	 	13559.49618	 	 	 	905.63003	0.68523	 	 	 	 	240.0
1350.0	 	100.0	 	 	 	7.33457	7.542	-2.02809	82.77921	33.41439	1.58286	0.63177	71.0079	92.25542	25.88282	0.37172	 	14386.24119	 	 	 	902.21218	0.68434	 	 	 	 	245.0
1345.0	 	100.0	 	 	 	7.33721	7.53929	-2.03933	81.57319	33.35297	1.58089	0.63255	71.53457	92.72676	26.0804	0.37142	 	15268.97986	 	 	 	898.79874	0.68327	 	 	 	 	250.0
1340.0	 	100.0	 	 	 	7.33985	7.53659	-2.05056	80.41396	33.29154	1.57891	0.63335	72.06091	93.19549	26.27794	0.37113	 	16211.86628	 	 	 	895.3897	0.68239	 	 	 	 	255.0
1335.0	 	100.0	 	 	 	7.34249	7.53389	-2.06177	79.29886	33.23012	1.57693	0.63414	72.58691	93.66163	26.47544	0.37083	 	17219.39347	 	 	 	891.98503	0.68151	 	 	 	 	260.0
1330.0	 	100.0	 	 	 	7.34512	7.53119	-2.07297	78.22541	33.16869	1.57494	0.63495	73.11259	94.12519	26.67291	0.37054	 	18296.41654	 	 	 	888.58474	0.68063	 	 	 	 	265.0
1325.0	 	100.0	 	 	 	7.34776	7.52849	-2.08417	77.19132	33.10726	1.57294	0.63575	73.63793	94.58619	26.87034	0.37025	 	19448.1862	 	 	 	885.18879	0.67976	 	 	 	 	270.0
1320.0	 	100.0	 	 	 	7.35039	7.5258	-2.09535	76.19445	33.04582	1.57093	0.63656	74.16295	95.04466	27.06774	0.36995	 	20680.38435	 	 	 	881.7972	0.67889	 	 	 	 	275.0
1315.0	 	100.0	 	 	 	7.35303	7.52311	-2.10652	75.23282	32.98439	1.56892	0.63738	74.68763	95.5006	27.26511	0.36966	 	21999.16097	 	 	 	878.40993	0.67802	 	 	 	 	280.0
1310.0	 	100.0	 	 	 	7.35566	7.52042	-2.11768	74.30458	32.92295	1.5669	0.6382	75.21199	95.95404	27.46244	0.36936	 	23411.17552	 	 	 	875.02699	0.67715	 	 	 	 	285.0
1305.0	 	100.0	 	 	 	7.35829	7.51773	-2.12883	73.40802	32.8615	1.56487	0.63903	75.73601	96.40499	27.65973	0.36907	 	24923.64391	 	 	 	871.64836	0.67629	 	 	 	 	290.0
1300.0	 	100.0	 	 	 	7.36093	7.51505	-2.13998	72.54155	32.80006	1.56284	0.63986	76.25971	96.85348	27.85699	0.36877	 	26544.38642	 	 	 	868.27403	0.67542	 	 	 	 	295.0
1295.0	 	100.0	 	 	 	7.36356	7.51236	-2.15111	71.70365	32.73861	1.56079	0.6407	76.78307	97.29952	28.05422	0.36848	 	28281.88382	 	 	 	864.904	0.67456	 	 	 	 	300.0
1290.0	 	100.0	 	 	 	7.36619	7.50968	-2.16223	70.89295	32.67716	1.55874	0.64154	77.3061	97.74313	28.25141	0.36818	 	30145.33748	 	 	 	861.53826	0.6737	 	 	 	 	305.0
1285.0	 	100.0	 	 	 	7.36882	7.50701	-2.17335	70.10813	32.61571	1.55668	0.64239	77.82881	98.18432	28.44856	0.36789	 	32144.73327	 	 	 	858.17679	0.67284	 	 	 	 	310.0
1280.0	 	100.0	 	 	 	7.37145	7.50433	-2.18446	69.34796	32.55426	1.55462	0.64325	78.35118	98.62311	28.64568	0.36759	 	34290.91554	 	 	 	854.81961	0.67198	 	 	 	 	315.0
1275.0	 	100.0	 	 	 	7.37408	7.50165	-2.19556	68.61131	32.49281	1.55254	0.6441	78.87323	99.05951	28.84277	0.3673	 	36595.66655	 	 	 	851.46669	0.67113	 	 	 	 	320.0
1270.0	 	100.0	 	 	 	7.37671	7.49898	-2.20666	67.89709	32.43135	1.55046	0.64497	79.39494	99.49356	29.03981	0.367	 	39071.79052	 	 	 	848.11804	0.67027	 	 	 	 	325.0
1265.0	 	100.0	 	 	 	7.37935	7.49631	-2.21774	67.20429	32.36989	1.54837	0.64584	79.91633	99.92525	29.23683	0.36671	 	41733.21482	 	 	 	844.77365	0.66941	 	 	 	 	330.0
1260.0	 	100.0	 	 	 	7.38198	7.49364	-2.22882	66.53197	32.30843	1.54627	0.64672	80.43738	100.35461	29.43381	0.36641	 	44595.08877	 	 	 	841.43351	0.66856	 	 	 	 	335.0
1255.0	 	100.0	 	 	 	7.38461	7.49097	-2.23989	65.87921	32.24697	1.54417	0.6476	80.95811	100.78166	29.63075	0.36612	 	47673.90654	 	 	 	838.09763	0.6677	 	 	 	 	340.0
1250.0	 	100.0	 	 	 	7.38724	7.48831	-2.25096	65.24518	32.1855	1.54206	0.64848	81.47851	101.2064	29.82766	0.36582	 	50987.62728	 	 	 	834.76601	0.66685	 	 	 	 	345.0
1245.0	 	100.0	 	 	 	7.38987	7.48564	-2.26202	64.62909	32.12404	1.53993	0.64938	81.99858	101.62886	30.02454	0.36553	 	54555.82253	 	 	 	831.43863	0.666	 	 	 	 	350.0
1240.0	 	100.0	 	 	 	7.3925	7.48298	-2.27307	64.03017	32.06257	1.53781	0.65028	82.51832	102.04905	30.22138	0.36523	 	58399.82734	 	 	 	828.1154	0.66518	 	 	 	 	355.0
1235.0	 	100.0	 	 	 	7.39513	7.48032	-2.28412	63.44772	32.0011	1.53567	0.65118	83.03773	102.46698	30.41818	0.36494	 	62542.9121	 	 	 	824.79625	0.66436	 	 	 	 	360.0
1230.0	 	100.0	 	 	 	7.39777	7.47766	-2.29515	62.88091	31.9399	1.53351	0.6521	83.55647	102.88276	30.61481	0.36464	 	67018.09224	 	 	 	821.46214	0.67042	 	 	 	 	365.0
1225.0	 	100.0	 	 	 	7.40041	7.47501	-2.30618	62.32909	31.87895	1.53133	0.65303	84.07458	103.29641	30.81128	0.36435	 	71854.68004	 	 	 	818.11352	0.66938	 	 	 	 	370.0
1220.0	 	100.0	 	 	 	7.40306	7.47235	-2.3172	61.79188	31.81798	1.52914	0.65396	84.5924	103.70787	31.00773	0.36405	 	77075.63874	 	 	 	814.7704	0.66829	 	 	 	 	375.0
1215.0	 	100.0	 	 	 	7.4057	7.4697	-2.32821	61.26868	31.75698	1.52695	0.6549	85.10994	104.11716	31.20417	0.36376	 	82714.28665	 	 	 	811.43271	0.66721	 	 	 	 	380.0
1210.0	 	100.0	 	 	 	7.40835	7.46704	-2.33922	60.75896	31.69597	1.52475	0.65584	85.6272	104.52429	31.40058	0.36347	 	88807.04152	 	 	 	808.10039	0.66615	 	 	 	 	385.0
1205.0	 	100.0	 	 	 	7.411	7.46439	-2.35023	60.26219	31.63493	1.52254	0.6568	86.14416	104.92928	31.59697	0.36317	 	95393.75977	 	 	 	804.77338	0.66509	 	 	 	 	390.0
1200.0	 	100.0	 	 	 	7.41364	7.46174	-2.36123	59.77789	31.57387	1.52033	0.65775	86.66084	105.33213	31.79335	0.36288	 	102518.0726	 	 	 	801.45162	0.66405	 	 	 	 	395.0
1195.0	 	100.0	 	 	 	7.41629	7.45909	-2.37222	59.3056	31.51279	1.5181	0.65872	87.17723	105.73287	31.9897	0.36258	 	110227.7785	 	 	 	798.13505	0.66301	 	 	 	 	400.0
1190.0	 	100.0	 	 	 	7.41894	7.45644	-2.38322	58.84487	31.4517	1.51587	0.65969	87.69332	106.13151	32.18604	0.36229	 	118575.2683	 	 	 	794.82362	0.66198	 	 	 	 	405.0
1185.0	 	100.0	 	 	 	7.42159	7.4538	-2.39421	58.39528	31.39058	1.51363	0.66066	88.20912	106.52805	32.38235	0.36199	 	127617.9963	 	 	 	791.51728	0.66097	 	 	 	 	410.0
1180.0	 	100.0	 	 	 	7.42424	7.45115	-2.40519	57.95648	31.32945	1.51139	0.66164	88.72474	106.92265	32.57868	0.3617	 	137419.4032	 	 	 	788.21518	0.6609	 	 	 	 	415.0
1175.0	 	100.0	 	 	 	7.4269	7.4485	-2.41618	57.52819	31.26831	1.50913	0.66263	89.24025	107.31539	32.77506	0.36141	 	148049.0151	 	 	 	784.91675	0.65978	 	 	 	 	420.0
1170.0	 	100.0	 	 	 	7.42956	7.44586	-2.42717	57.10989	31.20715	1.50687	0.66363	89.75545	107.70606	32.9714	0.36111	 	159582.0733	 	 	 	781.62347	0.65876	 	 	 	 	425.0
1165.0	 	100.0	 	 	 	7.43222	7.44321	-2.43815	56.70124	31.14597	1.5046	0.66463	90.27033	108.09466	33.16772	0.36082	 	172102.17	 	 	 	778.33527	0.65774	 	 	 	 	430.0
1160.0	 	100.0	 	 	 	7.43488	7.44056	-2.44913	56.30189	31.08478	1.50232	0.66564	90.7849	108.48121	33.36401	0.36052	 	185701.2104	 	 	 	775.05209	0.65674	 	 	 	 	435.0
1155.0	 	100.0	 	 	 	7.43755	7.43792	-2.46011	55.91155	31.02358	1.50003	0.66665	91.29915	108.86572	33.56027	0.36023	 	200480.2958	 	 	 	771.77391	0.65574	 	 	 	 	440.0
1150.0	 	100.0	 	 	 	7.44021	7.43528	-2.47108	55.52989	30.96236	1.49773	0.66768	91.81308	109.24821	33.7565	0.35993	 	216550.8027	 	 	 	768.50068	0.65476	 	 	 	 	445.0
1145.0	 	100.0	 	 	 	7.44287	7.43263	-2.48205	55.15664	30.90112	1.49543	0.6687	92.3267	109.62868	33.95269	0.35964	 	234035.3938	 	 	 	765.23235	0.65378	 	 	 	 	450.0
1140.0	 	100.0	 	 	 	7.44553	7.42999	-2.49301	54.79151	30.83987	1.49312	0.66974	92.83999	110.00716	34.14886	0.35934	 	253069.3439	 	 	 	761.96888	0.65281	 	 	 	 	455.0
1135.0	 	100.0	 	 	 	7.4482	7.42735	-2.50398	54.43426	30.77861	1.49079	0.67078	93.35297	110.38365	34.34499	0.35905	 	273801.8505	 	 	 	758.71023	0.65185	 	 	 	 	460.0
1130.0	 	100.0	 	 	 	7.45086	7.42471	-2.51493	54.08461	30.71734	1.48846	0.67183	93.86562	110.75817	34.54109	0.35875	 	296397.631	 	 	 	755.45638	0.6509	 	 	 	 	465.0
1125.0	 	100.0	 	 	 	7.45353	7.42207	-2.52589	53.74233	30.65606	1.48612	0.67289	94.37796	111.13072	34.73716	0.35846	 	321038.6059	 	 	 	752.20727	0.64995	 	 	 	 	470.0
1120.0	 	100.0	 	 	 	7.45619	7.41943	-2.53684	53.4072	30.59476	1.48378	0.67396	94.88997	111.50133	34.9332	0.35816	 	347925.8521	 	 	 	748.96287	0.64901	 	 	 	 	475.0
1115.0	 	100.0	 	 	 	7.45886	7.4168	-2.54779	53.07898	30.53345	1.48142	0.67503	95.40166	111.86999	35.1292	0.35787	 	377281.7576	 	 	 	745.72315	0.64807	 	 	 	 	480.0
1110.0	 	100.0	 	 	 	7.46153	7.41416	-2.55874	52.75746	30.47213	1.47905	0.67611	95.91302	112.23674	35.32517	0.35757	 	409352.4108	 	 	 	742.48807	0.64711	 	 	 	 	485.0
1105.0	 	100.0	 	 	 	7.4642	7.41152	-2.56968	52.44245	30.41081	1.47668	0.67719	96.42407	112.60157	35.52111	0.35728	 	444410.3861	 	 	 	739.25761	0.64622	 	 	 	 	490.0
1100.0	 	100.0	 	 	 	7.46687	7.40889	-2.58062	52.13374	30.34947	1.4743	0.67829	96.93479	112.9645	35.71701	0.35698	 	482757.6797	 	 	 	736.03172	0.64527	 	 	 	 	495.0
1095.0	 	100.0	 	 	 	7.46954	7.40625	-2.59156	51.83114	30.28812	1.4719	0.67939	97.44518	113.32554	35.91288	0.35669	 	524729.2357	 	 	 	732.81038	0.64436	 	 	 	 	500.0
1090.0	 	100.0	 	 	 	7.47221	7.40362	-2.60249	51.53447	30.22676	1.4695	0.6805	97.95525	113.68471	36.10872	0.35639	 	570696.6836	 	 	 	729.59357	0.64346	 	 	 	 	505.0
1085.0	 	100.0	 	 	 	7.47488	7.40098	-2.61342	51.24357	30.1654	1.46709	0.68162	98.46499	114.04201	36.30452	0.3561	 	621072.7037	 	 	 	726.38124	0.64256	 	 	 	 	510.0
1080.0	 	100.0	 	 	 	7.47755	7.39835	-2.62435	50.95826	30.10403	1.46467	0.68275	98.97441	114.39746	36.50028	0.3558	 	676315.8844	 	 	 	723.17337	0.64167	 	 	 	 	515.0
1075.0	 	100.0	 	 	 	7.48023	7.39572	-2.63528	50.67838	30.04265	1.46224	0.68388	99.48349	114.75107	36.69601	0.35551	 	736936.138	 	 	 	719.96993	0.64079	 	 	 	 	520.0
1070.0	 	100.0	 	 	 	7.4829	7.39309	-2.6462	50.40378	29.98126	1.4598	0.68503	99.99226	115.10284	36.89171	0.35521	 	803500.8789	 	 	 	716.77091	0.6399	 	 	 	 	525.0
1065.0	 	100.0	 	 	 	7.48558	7.39046	-2.65712	50.13431	29.91986	1.45735	0.68618	100.50069	115.4528	37.08737	0.35492	 	876642.0026	 	 	 	713.57625	0.63898	 	 	 	 	530.0
1060.0	 	100.0	 	 	 	7.48825	7.38783	-2.66804	49.86983	29.85846	1.45489	0.68734	101.0088	115.80095	37.28299	0.35462	 	957063.6295	 	 	 	710.38596	0.63811	 	 	 	 	535.0
1055.0	 	100.0	 	 	 	7.49093	7.3852	-2.67895	49.61019	29.79705	1.45242	0.68851	101.51658	116.1473	37.47858	0.35433	 	1045551.004	 	 	 	707.2	0.63725	 	 	 	 	540.0
1050.0	 	100.0	 	 	 	7.49361	7.38257	-2.68986	49.35526	29.73563	1.44994	0.68968	102.02403	116.49187	37.67414	0.35403	 	1142980.538	 	 	 	704.01835	0.63639	 	 	 	 	545.0
1045.0	 	100.0	 	 	 	7.49629	7.37994	-2.70077	49.10493	29.67421	1.44745	0.69087	102.53115	116.83467	37.86966	0.35374	 	1250330.896	 	 	 	700.84098	0.63553	 	 	 	 	550.0
1040.0	 	100.0	 	 	 	7.49897	7.37731	-2.71168	48.85905	29.61279	1.44495	0.69207	103.03794	117.1757	38.06514	0.35344	 	1368696.147	 	 	 	697.66789	0.63465	 	 	 	 	555.0
1035.0	 	100.0	 	 	 	7.50166	7.37469	-2.72258	48.61752	29.55135	1.44244	0.69327	103.5444	117.51498	38.26058	0.35315	 	1499299.962	 	 	 	694.49903	0.6338	 	 	 	 	560.0
1030.0	 	100.0	 	 	 	7.50434	7.37206	-2.73348	48.38022	29.48991	1.43992	0.69448	104.05054	117.85252	38.45599	0.35285	 	1643512.112	 	 	 	691.3344	0.63296	 	 	 	 	565.0
1025.0	 	100.0	 	 	 	7.50702	7.36943	-2.74438	48.14704	29.42847	1.43739	0.6957	104.55634	118.18833	38.65137	0.35256	 	1802867.263	 	 	 	688.17397	0.63207	 	 	 	 	570.0
1020.0	 	100.0	 	 	 	7.50971	7.36681	-2.75528	47.91786	29.36702	1.43485	0.69694	105.06181	118.52242	38.8467	0.35226	 	1979086.035	 	 	 	685.01773	0.63124	 	 	 	 	575.0
1015.0	 	100.0	 	 	 	7.5124	7.36418	-2.76617	47.69259	29.30557	1.4323	0.69818	105.56696	118.8548	39.042	0.35197	 	2174099.085	 	 	 	681.86566	0.6304	 	 	 	 	580.0
1010.0	 	100.0	 	 	 	7.51508	7.36156	-2.77706	47.47113	29.24411	1.42974	0.69943	106.07177	119.18548	39.23727	0.35167	 	2390074.705	 	 	 	678.71773	0.62957	 	 	 	 	585.0
1005.0	 	100.0	 	 	 	7.51777	7.35894	-2.78795	47.25338	29.18265	1.42717	0.70069	106.57625	119.51447	39.43249	0.35138	 	2629449.66	 	 	 	675.57394	0.62875	 	 	 	 	590.0
1000.0	 	100.0	 	 	 	7.52046	7.35631	-2.79884	47.03925	29.12119	1.42458	0.70196	107.0804	119.84179	39.62768	0.35108	 	2894965.011	 	 	 	672.43426	0.6279	 	 	 	 	595.0
995.0	 	100.0	 	 	 	7.52316	7.35369	-2.80972	46.82864	29.05972	1.42199	0.70324	107.58423	120.16744	39.82283	0.35079	 	3189706.89	 	 	 	669.29868	0.62705	 	 	 	 	600.0
990.0	 	100.0	 	 	 	7.52585	7.35107	-2.8206	46.62148	28.99825	1.41939	0.70453	108.08772	120.49143	40.01795	0.35049	 	3517152.539	 	 	 	666.16717	0.62624	 	 	 	 	605.0
985.0	 	100.0	 	 	 	7.52854	7.34845	-2.83148	46.41766	28.93677	1.41677	0.70583	108.59087	120.81377	40.21303	0.3502	 	3881223.205	 	 	 	663.03974	0.62543	 	 	 	 	610.0
980.0	 	100.0	 	 	 	7.53124	7.34583	-2.84235	46.21712	28.87529	1.41415	0.70714	109.0937	121.13448	40.40807	0.3499	 	4286344.554	 	 	 	659.91635	0.62461	 	 	 	 	615.0
975.0	 	100.0	 	 	 	7.53393	7.34321	-2.85322	46.01963	28.81381	1.41151	0.70846	109.59622	121.45363	40.60308	0.3496	 	4737531.389	 	 	 	656.79654	0.62412	 	 	 	 	620.0
970.0	 	100.0	 	 	 	7.53663	7.34061	-2.86404	45.82466	28.75235	1.40886	0.70979	110.09851	121.77146	40.79808	0.34931	 	5240497.751	 	 	 	653.67899	0.62329	 	 	 	 	625.0
965.0	 	100.0	 	 	 	7.53932	7.338	-2.87486	45.63277	28.69088	1.4062	0.71114	110.60045	122.08766	40.99304	0.34901	 	5801581.72	 	 	 	650.56555	0.62247	 	 	 	 	630.0
960.0	 	100.0	 	 	 	7.54201	7.33539	-2.88569	45.4439	28.62941	1.40353	0.71249	111.10207	122.40224	41.18797	0.34872	 	6428032.955	 	 	 	647.4562	0.62161	 	 	 	 	635.0
955.0	 	100.0	 	 	 	7.54471	7.33278	-2.89651	45.25797	28.56794	1.40085	0.71385	111.60334	122.71523	41.38285	0.34843	 	7128071.44	 	 	 	644.35093	0.6208	 	 	 	 	640.0
950.0	 	100.0	 	 	 	7.54741	7.33018	-2.90733	45.07492	28.50646	1.39815	0.71523	112.10428	123.02662	41.5777	0.34813	 	7911025.102	 	 	 	641.24971	0.61999	 	 	 	 	645.0
945.0	 	100.0	 	 	 	7.5501	7.32757	-2.91815	44.89467	28.44498	1.39545	0.71662	112.60488	123.33642	41.7725	0.34784	 	8787490.118	 	 	 	638.15253	0.61914	 	 	 	 	650.0
940.0	 	100.0	 	 	 	7.55281	7.32496	-2.92897	44.71717	28.38349	1.39273	0.71802	113.10515	123.64466	41.96727	0.34754	 	9769514.172	 	 	 	635.05937	0.61834	 	 	 	 	655.0
935.0	 	100.0	 	 	 	7.55551	7.32236	-2.93979	44.54234	28.32201	1.39	0.71942	113.60508	123.95133	42.162	0.34725	 	1.087080904E7	 	 	 	631.97022	0.61753	 	 	 	 	660.0
930.0	 	100.0	 	 	 	7.55821	7.31975	-2.95061	44.37013	28.26052	1.38726	0.72085	114.10467	124.25644	42.35668	0.34695	 	1.210699577E7	 	 	 	628.88504	0.61674	 	 	 	 	665.0
925.0	 	100.0	 	 	 	7.56092	7.31714	-2.96143	44.20047	28.19903	1.38451	0.72228	114.60393	124.56002	42.55133	0.34666	 	1.349588713E7	 	 	 	625.80383	0.61594	 	 	 	 	670.0
920.0	 	100.0	 	 	 	7.56363	7.31454	-2.97225	44.03331	28.13753	1.38174	0.72372	115.10285	124.86206	42.74594	0.34636	 	1.50578161E7	 	 	 	622.72656	0.61513	 	 	 	 	675.0
915.0	 	100.0	 	 	 	7.56634	7.31193	-2.98306	43.86859	28.07604	1.37896	0.72518	115.60144	125.16258	42.94051	0.34606	 	1.681601823E7	 	 	 	619.65322	0.61434	 	 	 	 	680.0
910.0	 	100.0	 	 	 	7.56905	7.30933	-2.99388	43.70625	28.01454	1.37618	0.72665	116.09969	125.46158	43.13504	0.34577	 	1.879706828E7	 	 	 	616.58379	0.61356	 	 	 	 	685.0
905.0	 	100.0	 	 	 	7.57177	7.30672	-3.00469	43.54625	27.95304	1.37338	0.72813	116.5976	125.75908	43.32953	0.34547	 	2.103139654E7	 	 	 	613.51825	0.61278	 	 	 	 	690.0
900.0	 	100.0	 	 	 	7.57448	7.30412	-3.0155	43.38853	27.89154	1.37056	0.72963	117.09518	126.05509	43.52399	0.34518	 	2.355388232E7	 	 	 	610.45658	0.612	 	 	 	 	695.0
895.0	 	100.0	 	 	 	7.5772	7.30151	-3.02631	43.23303	27.83003	1.36774	0.73113	117.59242	126.34961	43.7184	0.34488	 	2.640454903E7	 	 	 	607.39875	0.61122	 	 	 	 	700.0
890.0	 	100.0	 	 	 	7.57992	7.29891	-3.03712	43.07972	27.76853	1.3649	0.73265	118.08933	126.64266	43.91277	0.34459	 	2.962937122E7	 	 	 	604.34476	0.61046	 	 	 	 	705.0
885.0	 	100.0	 	 	 	7.58264	7.2963	-3.04793	42.92854	27.70702	1.36205	0.73419	118.5859	126.93424	44.1071	0.34429	 	3.328121531E7	 	 	 	601.29458	0.6097	 	 	 	 	710.0
880.0	 	100.0	 	 	 	7.58536	7.2937	-3.05874	42.77958	27.64551	1.35919	0.73573	119.08222	127.22436	44.30143	0.344	 	3.742017339E7	 	 	 	598.24907	0.60855	 	 	 	 	715.0
875.0	 	100.0	 	 	 	7.58809	7.29109	-3.06956	42.63278	27.58398	1.35631	0.73729	119.5783	127.51304	44.49576	0.3437	 	4.211608302E7	 	 	 	595.20824	0.60777	 	 	 	 	720.0
870.0	 	100.0	 	 	 	7.59081	7.28849	-3.08038	42.48798	27.52246	1.35342	0.73887	120.07404	127.80028	44.69005	0.34341	 	4.745033803E7	 	 	 	592.1713	0.60699	 	 	 	 	725.0
865.0	 	100.0	 	 	 	7.59353	7.28588	-3.0912	42.34514	27.46093	1.35052	0.74045	120.56946	128.08609	44.8843	0.34311	 	5.351626437E7	 	 	 	589.13825	0.60621	 	 	 	 	730.0
860.0	 	100.0	 	 	 	7.59626	7.28327	-3.10201	42.20423	27.3994	1.34761	0.74205	121.06455	128.37048	45.07851	0.34282	 	6.04217744E7	 	 	 	586.10907	0.60544	 	 	 	 	735.0
855.0	 	100.0	 	 	 	7.59899	7.28067	-3.11283	42.06521	27.33787	1.34468	0.74367	121.55932	128.65345	45.27269	0.34252	 	6.829180195E7	 	 	 	583.08374	0.60467	 	 	 	 	740.0
850.0	 	100.0	 	 	 	7.60172	7.27806	-3.12364	41.92803	27.27633	1.34174	0.7453	122.05375	128.93502	45.46684	0.34223	 	7.727114984E7	 	 	 	580.06226	0.6039	 	 	 	 	745.0
845.0	 	100.0	 	 	 	7.60445	7.27546	-3.13445	41.79265	27.2148	1.33879	0.74694	122.54786	129.21519	45.66094	0.34193	 	8.752785819E7	 	 	 	577.04461	0.60314	 	 	 	 	750.0
840.0	 	100.0	 	 	 	7.60719	7.27286	-3.14526	41.65905	27.15326	1.33582	0.7486	123.04164	129.49397	45.85501	0.34164	 	9.925716634E7	 	 	 	574.03077	0.60237	 	 	 	 	755.0
835.0	 	100.0	 	 	 	7.60992	7.27025	-3.15607	41.52719	27.09172	1.33285	0.75027	123.5351	129.77138	46.04905	0.34134	 	1.126861948E8	 	 	 	571.02075	0.60161	 	 	 	 	760.0
830.0	 	100.0	 	 	 	7.61266	7.26765	-3.16687	41.39702	27.03018	1.32985	0.75196	124.02823	130.04741	46.24304	0.34105	 	1.280794997E8	 	 	 	568.01452	0.60085	 	 	 	 	765.0
825.0	 	100.0	 	 	 	7.6154	7.26505	-3.17768	41.26853	26.96864	1.32685	0.75367	124.52104	130.32208	46.43701	0.34075	 	1.457455964E8	 	 	 	565.01208	0.6001	 	 	 	 	770.0
820.0	 	100.0	 	 	 	7.61814	7.26244	-3.18848	41.14166	26.9071	1.32383	0.75539	125.01352	130.5954	46.63093	0.34046	 	1.660447716E8	 	 	 	562.01342	0.59934	 	 	 	 	775.0
815.0	 	100.0	 	 	 	7.62088	7.25984	-3.19928	41.01641	26.84555	1.32079	0.75712	125.50568	130.86737	46.82482	0.34016	 	1.893982711E8	 	 	 	559.01852	0.59859	 	 	 	 	780.0
810.0	 	100.0	 	 	 	7.62363	7.25724	-3.21008	40.89272	26.78401	1.31774	0.75887	125.99751	131.13801	47.01868	0.33987	 	2.162993184E8	 	 	 	556.02738	0.59784	 	 	 	 	785.0
805.0	 	100.0	 	 	 	7.6318	7.25223	-3.23088	40.8972	26.69007	1.31628	0.75972	126.56049	131.451	47.24049	0.33953	 	2.499348115E8	66.7138	99.4206	-109.7054	558.55367	0.59455	 	32.54621	15.62852	 	790.0
800.0	 	100.0	 	 	 	7.63453	7.24963	-3.24165	40.77553	26.62841	1.31321	0.76149	127.0516	131.71849	47.43427	0.33924	 	2.861401648E8	66.8284	99.9304	-109.37669	555.57351	0.59603	34.73311	33.75099	16.65901	 	795.0
795.0	 	100.0	 	 	 	7.63727	7.24703	-3.25247	40.65588	26.56675	1.31012	0.76329	127.54247	131.98497	47.62804	0.33894	 	3.280050701E8	66.9439	100.441	-109.04893	552.59965	0.59477	35.95111	34.9924	17.72702	 	800.0
790.0	 	100.0	 	 	 	7.64002	7.24442	-3.26328	40.53766	26.5051	1.30702	0.7651	128.03301	132.25013	47.82176	0.33865	 	3.764784284E8	67.0607	100.954	-108.72189	549.62967	0.594	37.11838	36.27094	18.83251	 	805.0
785.0	 	100.0	 	 	 	7.64277	7.24182	-3.27409	40.42085	26.44344	1.30391	0.76693	128.52321	132.51397	48.01545	0.33835	 	4.32678508E8	67.1787	101.467	-108.39578	546.66356	0.59322	38.33092	37.5896	19.97782	 	810.0
780.0	 	100.0	 	 	 	7.64551	7.23921	-3.28489	40.30544	26.38178	1.30078	0.76877	129.01309	132.77651	48.2091	0.33806	 	4.979254455E8	67.298	101.982	-108.0704	543.70077	0.59256	39.59774	38.9516	21.16549	 	815.0
775.0	 	100.0	 	 	 	7.64826	7.23661	-3.2957	40.19142	26.32012	1.29764	0.77063	129.50264	133.03776	48.40272	0.33776	 	5.737798412E8	67.4185	102.499	-107.74572	540.74184	0.59178	40.92345	40.36052	22.39833	 	820.0
770.0	 	100.0	 	 	 	7.65102	7.23401	-3.3065	40.07877	26.25846	1.29448	0.77251	129.99186	133.29772	48.5963	0.33747	 	6.620883532E8	67.5406	103.017	-107.42176	537.78681	0.59101	42.31242	41.82029	23.67942	 	825.0
765.0	 	100.0	 	 	 	7.65377	7.23141	-3.3173	39.96744	26.1968	1.29131	0.77441	130.48076	133.5564	48.78984	0.33717	 	7.650434717E8	67.6637	103.536	-107.09873	534.83509	0.59035	43.76878	43.33511	25.01203	 	830.0
760.0	 	100.0	 	 	 	7.65652	7.22881	-3.3281	39.85743	26.13513	1.28812	0.77633	130.96933	133.81381	48.98334	0.33688	 	8.852457284E8	67.7882	104.056	-106.77641	531.8867	0.58968	45.29775	44.90977	26.3999	 	835.0
755.0	 	100.0	 	 	 	7.65928	7.22621	-3.33889	39.74872	26.07347	1.28492	0.77826	131.45757	134.06996	49.17681	0.33658	 	1.025787358E9	67.9142	104.578	-106.45479	528.94222	0.5889	46.90513	46.54953	27.84713	 	840.0
750.0	 	100.0	 	 	 	7.66204	7.2236	-3.34969	39.64127	26.0118	1.2817	0.78021	131.94549	134.32485	49.37024	0.33629	 	1.190354453E9	68.0415	105.101	-106.13388	526.00056	0.58833	49.14663	48.26015	29.35813	 	845.0000000000001
745.0	 	100.0	 	 	 	7.66479	7.221	-3.36048	39.53507	25.95013	1.27847	0.78219	132.43308	134.57849	49.56364	0.33599	 	1.383343213E9	68.1703	105.626	-105.81367	523.0628	0.58755	51.50322	50.267	30.93784	 	850.0000000000001
740.0	 	100.0	 	 	 	7.66755	7.2184	-3.37127	39.43009	25.88847	1.27522	0.78418	132.92035	134.83088	49.757	0.33569	 	1.610006538E9	68.3004	106.151	-105.49438	520.12789	0.58698	53.78456	52.75845	32.59172	 	855.0000000000001
735.0	 	100.0	 	 	 	7.67032	7.2158	-3.38206	39.32631	25.8268	1.27196	0.78619	133.40728	135.08204	49.95032	0.3354	 	1.87663143E9	68.4318	106.678	-105.17579	517.19585	0.58641	55.99607	55.1777	34.91633	 	860.0000000000001
730.0	 	100.0	 	 	 	7.67308	7.21321	-3.39285	39.22373	25.76513	1.26868	0.78822	133.8939	135.33197	50.14361	0.3351	 	2.190751438E9	68.5649	107.207	-104.85769	514.26723	0.58572	58.14245	57.52775	37.24727	 	865.0000000000001
725.0	 	100.0	 	 	 	7.67585	7.21061	-3.40364	39.12232	25.70346	1.26538	0.79027	134.38019	135.58068	50.33686	0.33481	 	2.561414979E9	68.6995	107.737	-104.54008	511.34102	0.58524	60.2277	59.81143	39.5128	 	870.0000000000001
720.0	 	100.0	 	 	 	7.67861	7.20801	-3.41443	39.02204	25.64178	1.26207	0.79235	134.86616	135.82817	50.53007	0.33451	 	2.999514777E9	68.8353	108.268	-104.22358	508.41822	0.58456	62.25518	62.03134	41.71529	 	875.0000000000001
715.0	 	100.0	 	 	 	7.68138	7.20541	-3.42521	38.92289	25.58011	1.25875	0.79444	135.3518	136.07445	50.72325	0.33422	 	3.518157901E9	68.9727	108.8	-103.90778	505.49737	0.58417	64.22816	64.19008	43.85715	 	880.0000000000001
710.0	 	99.98852	0.0114767	 	 	7.68414	7.20283	-3.43593	38.8241	25.51914	1.25537	0.79658	135.83797	136.31878	50.91679	0.33392	 	4.132755606E9	69.1165	109.341	-103.58767	502.6282	0.57383	66.14931	66.29007	45.9406	 	885.0000000000001
705.0	 	99.98606	0.0139381	 	 	7.68691	7.20023	-3.4467	38.727	25.45762	1.252	0.79872	136.32319	136.56254	51.11	0.33363	 	4.863097897E9	69.2582	109.877	-103.27182	499.72223	0.5812	68.02116	68.33361	47.96778	 	890.0000000000001
700.0	 	99.98319	0.0168088	 	 	7.68968	7.19764	-3.45747	38.63094	25.39614	1.24862	0.80089	136.80812	136.80511	51.30319	0.33333	 	5.732063664E9	69.4014	110.415	-102.95668	496.81975	0.5805	69.84585	70.32282	49.94065	 	895.0000000000001
695.0	 	99.97986	0.0201422	 	 	7.69245	7.19505	-3.46823	38.53591	25.3347	1.24522	0.80307	137.29279	137.04649	51.49637	0.33303	 	6.767746475E9	69.5465	110.955	-102.64203	493.92101	0.57975	71.62545	72.25981	51.86118	 	900.0000000000001
690.0	 	99.976	0.0239961	 	 	7.69522	7.19245	-3.47899	38.44188	25.27329	1.24179	0.80529	137.7772	137.28669	51.68953	0.33274	 	8.00430232E9	69.6933	111.496	-102.32788	491.02523	0.57916	73.36184	74.14654	53.73119	 	905.0000000000001
685.0	 	99.97157	0.0284326	 	 	7.698	7.18986	-3.48974	38.34883	25.21193	1.23836	0.80752	138.26135	137.52571	51.8827	0.33244	 	9.483325256E9	69.8419	112.039	-102.01422	488.13264	0.57852	75.05672	75.98488	55.55246	 	910.0000000000001
680.0	 	99.96648	0.0335175	 	 	7.70077	7.18727	-3.50049	38.25676	25.15062	1.2349	0.80978	138.74527	137.76356	52.07586	0.33215	 	1.12555E10	69.9927	112.583	-101.70045	485.244	0.57773	76.71171	77.77664	57.32666	 	915.0000000000001
675.0	 	99.96068	0.039319	 	 	7.70355	7.18468	-3.51124	38.16563	25.08936	1.23142	0.81207	139.22896	138.00026	52.26903	0.33185	 	1.3382999999999998E10	70.1452	113.129	-101.38739	482.35806	0.57719	78.32825	79.52347	59.05536	 	920.0000000000001
670.0	 	99.95409	0.0459079	 	 	7.70632	7.1821	-3.52198	38.07543	25.02818	1.22792	0.81439	139.71242	138.23581	52.46221	0.33155	 	1.5941699999999998E10	70.2995	113.677	-101.07484	479.47509	0.57659	79.90769	81.22697	60.74007	 	925.0000000000001
665.0	 	99.94664	0.0533559	 	 	7.7091	7.17951	-3.53271	37.98613	24.96706	1.2244	0.81673	140.19569	138.47022	52.6554	0.33126	 	1.90248E10	70.456	114.226	-100.76239	476.59535	0.57595	81.45138	82.88871	62.38227	 	930.0000000000001
660.0	 	99.93827	0.0617341	 	 	7.71188	7.17693	-3.54344	37.89772	24.90603	1.22086	0.8191	140.67877	138.7035	52.84862	0.33096	 	2.27471E10	70.6146	114.777	-100.45025	473.71862	0.57535	82.96051	84.51014	63.98334	 	935.0000000000001
655.0	 	99.92889	0.071112	 	 	7.71465	7.17434	-3.55416	37.81019	24.84508	1.21729	0.82149	141.16167	138.93568	53.04186	0.33066	 	2.7249599999999996E10	70.7752	115.33	-100.13842	470.84464	0.5748	84.43623	86.09265	65.54461	 	940.0000000000001
650.0	 	99.91325	0.0867518	 	 	7.71742	7.17177	-3.56484	37.72316	24.78462	1.21369	0.82393	141.64496	139.1666	53.23536	0.33037	 	3.2705399999999996E10	70.9367	115.883	-99.8279	467.96917	0.5751	85.87959	87.63756	67.06733	 	945.0000000000001
645.0	 	99.89683	0.10317	 	 	7.7202	7.1692	-3.57552	37.63706	24.72424	1.21006	0.8264	142.12814	139.3965	53.42893	0.33007	 	3.93306E10	71.1025	116.441	-99.51571	465.09657	0.57452	87.2922	89.14656	68.55313	 	950.0000000000001
640.0	 	99.87964	0.12036	 	 	7.72297	7.16663	-3.5862	37.5518	24.66394	1.20642	0.8289	142.61116	139.62535	53.62252	0.32977	 	4.739299999999999E10	71.2707	117.001	-99.20327	462.22705	0.5739	88.67442	90.62041	70.00273	 	955.0000000000001
635.0	 	99.86168	0.13832	 	 	7.72574	7.16405	-3.59687	37.46737	24.60375	1.20275	0.83143	143.09403	139.85318	53.81615	0.32947	 	5.722499999999999E10	71.4412	117.564	-98.89117	459.36013	0.57338	90.02719	92.06025	71.41722	 	960.0000000000001
630.0	 	99.84295	0.15705	 	 	7.72851	7.16149	-3.60753	37.38374	24.54364	1.19905	0.83399	143.57674	140.07999	54.0098	0.32917	 	6.92406E10	71.6138	118.127	-98.57921	456.49575	0.57288	91.35134	93.46714	72.79761	 	965.0000000000001
625.0	 	99.82347	0.17653	 	 	7.73128	7.15892	-3.61819	37.30092	24.48363	1.19534	0.83658	144.0593	140.30579	54.2035	0.32887	 	8.39563E10	71.7889	118.694	-98.26741	453.63431	0.57229	92.64775	94.84216	74.14497	 	970.0000000000001
620.0	 	99.80327	0.19673	 	 	7.73406	7.15635	-3.62884	37.21888	24.42372	1.1916	0.83921	144.54171	140.5306	54.39722	0.32858	 	1.02019E11	71.9664	119.262	-97.95557	450.77574	0.57172	93.91722	96.18629	75.46022	 	975.0000000000001
615.0	 	99.77559	0.22441	 	 	7.73682	7.1538	-3.63944	37.13718	24.36446	1.18781	0.84188	145.02478	140.75436	54.59133	0.32828	 	1.2423E11	72.1444	119.829	-97.64564	447.91363	0.57242	95.16046	97.50045	76.74426	 	980.0000000000001
610.0	 	99.74732	0.25268	 	 	7.73959	7.15124	-3.65005	37.05633	24.30529	1.184	0.8446	145.5078	140.97721	54.78551	0.32798	 	1.51611E11	72.3279	120.403	-97.33298	445.05449	0.57183	96.3789	98.78613	77.99856	 	985.0000000000001
605.0	 	99.71849	0.28151	 	 	7.74236	7.14869	-3.66065	36.97624	24.24622	1.18016	0.84734	145.99068	141.19913	54.97972	0.32768	 	1.85447E11	72.5138	120.979	-97.02032	442.1983	0.57124	97.57256	100.0436	79.22337	 	990.0000000000001
600.0	 	99.68916	0.31084	 	 	7.74512	7.14614	-3.67124	36.89691	24.18724	1.17631	0.85012	146.47342	141.42012	55.17397	0.32738	 	2.27356E11	72.7023	121.557	-96.70747	439.34452	0.57076	98.74213	101.27374	80.41955	 	995.0000000000001
595.0	 	99.65935	0.34065	 	 	7.74789	7.14359	-3.68183	36.81831	24.12837	1.17242	0.85293	146.956	141.64019	55.36825	0.32708	 	2.7939E11	72.8933	122.138	-96.39502	436.49382	0.57014	99.88818	102.47724	81.58778	 	1000.0000000000001
590.0	 	99.62912	0.37088	 	 	7.75066	7.14104	-3.69241	36.74044	24.06959	1.16852	0.85578	147.43844	141.85935	55.56256	0.32678	 	3.44152E11	73.0871	122.72	-96.0822	433.64613	0.56954	101.01143	103.65495	82.72888	 	1005.0000000000001
585.0	 	99.59852	0.40148	 	 	7.75342	7.13849	-3.70299	36.66329	24.01089	1.16459	0.85867	147.92072	142.0776	55.7569	0.32648	 	4.24956E11	73.2835	123.305	-95.76922	430.80128	0.56897	102.11242	104.80754	83.84352	 	1010.0000000000001
580.0	 	99.5599	0.4401	 	 	7.75618	7.13595	-3.71351	36.58634	23.95296	1.1606	0.86162	148.40385	142.29502	55.9517	0.32618	 	5.25993E11	73.4805	123.889	-95.45853	427.9517	0.56991	103.1917	105.93567	84.93236	 	1015.0000000000001
575.0	 	99.52099	0.47901	 	 	7.75894	7.13342	-3.72404	36.51021	23.89512	1.15659	0.86461	148.88694	142.5116	56.14657	0.32588	 	6.52671E11	73.6837	124.481	-95.14413	425.1054	0.56926	104.25063	107.0407	85.99676	 	1020.0000000000001
570.0	 	99.47168	0.51817	 	0.010154	7.76169	7.13089	-3.73452	36.43433	23.83827	1.15252	0.86767	149.37137	142.72747	56.3421	0.32558	 	8.11933E11	73.9194	125.123	-94.80203	422.25145	0.57079	105.28896	108.12255	87.03663	 	1025.0
565.0	 	99.42657	0.55754	 	0.0158919	7.76444	7.12836	-3.74501	36.35932	23.78114	1.14844	0.87075	149.85502	142.94245	56.53739	0.32527	 	1.01269E12	74.1451	125.748	-94.47186	419.40487	0.56932	106.30723	109.18187	88.05262	 	1030.0
560.0	 	99.37903	0.59707	 	0.0238972	7.76719	7.12584	-3.75549	36.2849	23.72431	1.14432	0.87388	150.33887	143.15665	56.73286	0.32497	 	1.26645E12	74.3806	126.385	-94.13531	416.55881	0.56921	107.30601	110.21926	89.04534	 	1035.0
555.0	 	99.32327	0.63672	 	0.0400011	7.76994	7.12333	-3.76592	36.2108	23.66832	1.14014	0.87708	150.8238	143.3702	56.92888	0.32467	 	1.58807E12	74.6428	127.065	-93.7766	413.70694	0.57038	108.14836	111.05146	90.01531	 	1040.0
550.0	 	99.265	0.67645	 	0.0585482	7.77268	7.12082	-3.77634	36.13725	23.61266	1.13593	0.88034	151.30898	143.58302	57.12509	0.32437	 	1.99686E12	74.9153	127.759	-93.41132	410.85562	0.57026	109.05169	111.9375	90.96304	 	1045.0
545.0	 	99.19719	0.71621	 	0.0865952	7.7754	7.11832	-3.78671	36.06394	23.558	1.13165	0.88367	151.79551	143.7953	57.32196	0.32406	 	2.51792E12	75.2188	128.502	-93.02025	407.99628	0.57187	109.93467	112.8038	91.88907	 	1050.0
540.0	 	99.1191	0.75597	 	0.12494	7.77812	7.11583	-3.79703	35.99082	23.50444	1.1273	0.88708	152.28356	144.00713	57.51956	0.32375	 	3.18402E12	75.5561	129.299	-92.60169	405.12887	0.57348	110.79776	113.6508	92.7939	 	1055.0
535.0	 	99.03875	0.79568	 	0.16557	7.78084	7.11335	-3.80733	35.91824	23.45122	1.12291	0.89054	152.77188	144.21834	57.71735	0.32345	 	4.03806E12	75.9037	130.111	-92.17699	402.26135	0.5735	111.64141	114.47895	93.67805	 	1060.0
530.0	 	98.94835	0.83532	 	0.21633	7.78354	7.11088	-3.81758	35.84584	23.39913	1.11845	0.8941	153.26172	144.42917	57.91588	0.32314	 	5.13637E12	76.2846	130.975	-91.72554	399.38556	0.57516	112.46599	115.28862	94.54193	 	1065.0
525.0	 	98.83893	0.87485	 	0.28622	7.78622	7.10843	-3.82774	35.77323	23.34904	1.11387	0.89777	153.75461	144.63999	58.11576	0.32283	 	6.55314E12	76.7259	131.938	-91.22339	396.49044	0.57902	113.27196	116.08026	95.38604	 	1070.0
520.0	 	98.71893	0.91423	 	0.36684	7.78888	7.106	-3.83783	35.70074	23.3002	1.10921	0.90154	154.24922	144.85061	58.31644	0.32252	 	8.38647E12	77.2027	132.957	-90.694	393.586	0.58089	114.05966	116.85421	96.21078	 	1075.0
515.0	 	98.58846	0.95344	 	0.4581	7.79153	7.10358	-3.84787	35.62839	23.2526	1.10447	0.90541	154.74556	145.06107	58.51793	0.32221	 	1.07664E13	77.7149	134.033	-90.13784	390.67139	0.58292	114.82948	117.61084	97.01656	 	1080.0
510.0	 	98.43833	0.99246	 	0.56921	7.79416	7.10119	-3.8578	35.55574	23.20721	1.09961	0.90941	155.24521	145.2718	58.72088	0.32189	 	1.38659E13	78.29	135.212	-89.53115	387.73661	0.58696	115.58174	118.35049	97.80377	 	1085.0
505.0	 	98.2778	1.03126	 	0.69094	7.79677	7.09881	-3.86767	35.4832	23.16313	1.09467	0.91352	155.74666	145.48251	58.92466	0.32157	 	1.7916E13	78.9013	136.449	-88.8988	384.79181	0.58896	116.31691	119.07359	98.57288	 	1090.0
500.0	 	98.09753	1.06982	 	0.83265	7.79936	7.09646	-3.87743	35.41032	23.12135	1.0896	0.91777	156.25154	145.69364	59.12994	0.32126	 	2.3226E13	79.576	137.79	-88.21791	381.82534	0.59329	117.03519	119.78036	99.32416	 	1095.0
495.0	 	97.91479	1.10035	 	0.98487	7.80193	7.09411	-3.88719	35.33805	23.08013	1.08449	0.92209	156.75699	145.90449	59.33555	0.32094	 	3.02142E13	80.2891	139.194	-87.51115	378.85789	0.59349	117.73706	120.47125	100.05808	 	1100.0
490.0	 	97.72206	1.13047	 	1.14747	7.8045	7.09178	-3.89687	35.26576	23.04027	1.07929	0.92653	157.26417	146.11541	59.54195	0.32062	 	3.94422E13	81.0347	140.649	-86.78469	375.88041	0.5955	118.42202	121.14587	100.77431	 	1105.0
485.0	 	97.51944	1.1602	 	1.32036	7.80705	7.08946	-3.90648	35.19355	23.00148	1.07403	0.93107	157.77313	146.32646	59.74918	0.3203	 	5.16704E13	81.8158	142.163	-86.03646	372.89288	0.59751	119.09112	121.80516	101.47381	 	1110.0
480.0	 	97.30705	1.1895	 	1.50345	7.80959	7.08716	-3.91604	35.12141	22.96428	1.06868	0.93574	158.28389	146.53764	59.95722	0.31997	 	6.79334E13	82.6327	143.733	-85.2671	369.89569	0.59944	119.74466	122.44942	102.15692	 	1115.0
475.0	 	97.08496	1.21839	 	1.69665	7.81211	7.08487	-3.92553	35.04935	22.92846	1.06324	0.94052	158.79644	146.74901	60.16609	0.31965	 	8.96428E13	83.4853	145.362	-84.47775	366.88819	0.6015	120.38302	123.07901	102.82405	 	1120.0
470.0	 	96.85325	1.24687	 	1.89988	7.81461	7.0826	-3.93495	34.97732	22.89403	1.05772	0.94543	159.31077	146.96057	60.37577	0.31933	 	1.18733E14	84.3734	147.047	-83.66906	363.87077	0.60348	121.00633	123.6941	103.47536	 	1125.0
465.0	 	96.6217	1.27491	 	2.10339	7.81711	7.08034	-3.94435	34.90578	22.85995	1.05217	0.95041	159.82514	147.17182	60.58555	0.319	 	1.57865E14	85.2682	148.742	-82.86527	360.85533	0.60309	121.615	124.29504	104.11128	 	1130.0
460.0	 	96.38068	1.30255	 	2.31677	7.8196	7.07809	-3.95369	34.83428	22.82726	1.04654	0.95553	160.34125	147.38328	60.79612	0.31868	 	2.10713E14	86.1985	150.494	-82.04351	357.83031	0.605	122.20924	124.88207	104.73205	 	1135.0
455.0	 	96.14696	1.3228	 	2.53024	7.82209	7.07583	-3.96306	34.76372	22.79414	1.04092	0.96069	160.85613	147.59398	61.00627	0.31836	 	2.82391E14	87.1372	152.257	-81.22593	354.81542	0.60298	122.78936	125.45549	105.33799	 	1140.0
450.0	 	95.91386	1.34243	 	2.74371	7.82458	7.07358	-3.97241	34.69357	22.7613	1.03526	0.96594	161.37083	147.80427	61.21642	0.31804	 	3.80004E14	88.0794	154.024	-80.41644	351.80348	0.60239	123.35497	126.01497	105.92882	 	1145.0
445.0	 	95.69118	1.36144	 	2.94738	7.82708	7.07132	-3.9818	34.62434	22.72764	1.02962	0.97123	161.8836	148.01355	61.42586	0.31772	 	5.1348199999999994E14	88.9986	155.749	-79.635	348.80628	0.59944	123.90697	126.56132	106.50537	 	1150.0
440.0	 	95.46927	1.37986	 	3.15087	7.82958	7.06906	-3.99117	34.55559	22.69421	1.02396	0.9766	162.39616	148.22236	61.6353	0.3174	 	6.96789E14	89.9237	157.482	-78.85945	345.8123	0.5988	124.44554	127.09476	107.06787	 	1155.0
435.0	 	95.25786	1.39771	 	3.34443	7.83209	7.06679	-4.00058	34.48776	22.65991	1.01832	0.98201	162.90669	148.43006	61.84398	0.31708	 	9.4963E14	90.8256	159.172	-78.11112	342.83398	0.59566	124.97098	127.61554	107.61661	 	1160.0
430.0	 	95.04733	1.41501	 	3.53766	7.8346	7.06453	-4.00998	34.4204	22.6258	1.01266	0.9875	163.41692	148.63721	62.05262	0.31676	 	1.29994E15	91.7332	160.869	-77.36807	339.85891	0.59501	125.48349	128.12388	108.15181	 	1165.0
425.0	 	94.84737	1.4318	 	3.72084	7.83713	7.06226	-4.01941	34.35396	22.59075	1.00701	0.99303	163.92503	148.84316	62.26047	0.31645	 	1.78753E15	92.6177	162.523	-76.65161	336.90012	0.59176	125.98337	128.62006	108.67381	 	1170.0
420.0	 	94.65802	1.44807	 	3.89391	7.83966	7.05997	-4.02889	34.28844	22.55472	1.0014	0.9986	164.43096	149.04784	62.46751	0.31613	 	2.46935E15	93.4786	164.135	-75.96112	333.95767	0.58849	126.47077	129.10423	109.18275	 	1175.0
415.0	 	94.47925	1.46388	 	4.05687	7.84221	7.05768	-4.03841	34.22383	22.51769	0.99581	1.00421	164.93468	149.25121	62.67373	0.31582	 	3.42732E15	94.316	165.704	-75.29606	331.03153	0.58523	126.94595	129.57666	109.67893	 	1180.0
410.0	 	94.31642	1.47391	 	4.20967	7.84478	7.05536	-4.04802	34.16048	22.47899	0.99028	1.00982	165.43516	149.45281	62.87871	0.31551	 	4.78014E15	95.1315	167.232	-74.65464	328.12895	0.58052	127.40913	130.03755	110.16257	 	1185.0
405.0	 	94.16462	1.48307	 	4.35231	7.84736	7.05304	-4.05766	34.09802	22.43917	0.98477	1.01546	165.93319	149.65293	63.08277	0.3152	 	6.69997E15	95.9213	168.712	-74.039	325.24332	0.57713	127.86005	130.4867	110.63349	 	1190.0
400.0	 	94.02381	1.49143	 	4.48476	7.84996	7.0507	-4.06736	34.0365	22.39819	0.9793	1.02114	166.4288	149.85153	63.28592	0.3149	 	9.43824E15	96.6877	170.15	-73.44687	322.37552	0.57356	128.29938	130.9247	111.09231	 	1195.0
395.0	 	93.89396	1.49902	 	4.60702	7.85258	7.04836	-4.07711	33.97589	22.35603	0.97386	1.02684	166.92194	150.04855	63.48816	0.31459	 	1.33642E16	97.4304	171.544	-72.87808	319.52539	0.57003	128.72723	131.3517	111.53916	 	1200.0
390.0	 	93.77499	1.50591	 	4.71911	7.85521	7.046	-4.0869	33.91621	22.31268	0.96845	1.03258	167.41261	150.24398	63.68947	0.31429	 	1.9023E16	98.1502	172.894	-72.33155	316.69306	0.56647	129.14392	131.76797	111.97437	 	1205.0
385.0	 	90.72598	1.50506	3.05251	4.71645	7.85254	7.04839	-4.07696	33.69387	22.62973	0.94768	1.05521	168.44982	150.67148	64.11432	0.31367	 	2.72126E16	124.417	216.396	-56.53436	310.65906	1.2068	129.54955	132.17364	112.39806	 	1210.0
380.0	 	81.69611	1.50212	12.09452	4.70725	7.83896	7.0606	-4.0263	33.13831	23.73485	0.89669	1.11521	170.56457	151.53944	64.98148	0.31241	 	3.90965E16	201.834	338.163	-26.74169	297.96415	2.53898	129.94385	132.56849	112.81003	 	1215.0
375.0	 	73.57846	1.49946	20.22316	4.69893	7.82684	7.07153	-3.98092	32.63051	24.81114	0.85123	1.17477	172.48389	152.31636	65.77	0.31127	 	5.64763E16	271.986	441.46	-10.38274	286.18427	2.35598	130.32758	132.95319	113.21098	 	1220.0
370.0	 	66.27822	1.49705	27.53333	4.6914	7.81603	7.08131	-3.94032	32.16591	25.87341	0.80998	1.23459	174.24982	153.03196	66.49614	0.31023	 	8.20359E16	335.58	530.102	0.12612	275.23612	2.18963	130.70091	133.32793	113.6011	 	1225.0
365.0	 	59.71132	1.49487	34.10922	4.68458	7.8064	7.09004	-3.90407	31.74041	26.92824	0.7722	1.29499	175.88822	153.70193	67.17005	0.30928	 	1.19839E17	393.251	606.887	7.49723	265.04441	2.03834	131.06407	133.6929	113.9806	 	1230.0
360.0	 	53.80227	1.4929	40.02641	4.67841	7.79784	7.09783	-3.87176	31.35026	27.97583	0.73747	1.356	177.41632	154.33482	67.79857	0.30841	 	1.76078E17	445.578	673.923	12.96921	255.54017	1.90085	131.41717	134.04826	114.34964	 	1235.0
355.0	 	48.48401	1.49112	45.35204	4.67283	7.79024	7.10475	-3.84302	30.99211	29.01205	0.70551	1.41742	178.84649	154.93553	68.38669	0.30761	 	2.60239E17	493.079	732.83	17.19474	246.66112	1.77581	131.76043	134.39419	114.70843	 	1240.0
350.0	 	43.69621	1.4895	50.14653	4.66777	7.78352	7.11089	-3.81753	30.66289	30.00403	0.67675	1.47764	180.18844	155.50714	68.93836	0.30688	 	3.86947E17	536.226	784.881	20.55431	238.3502	1.66218	132.09401	134.73084	115.05713	 	1245.0
345.0	 	39.38518	1.48803	54.46361	4.66318	7.77758	7.11632	-3.79498	30.35988	30.9733	0.65032	1.53772	181.45015	156.05178	69.45687	0.30621	 	5.78893E17	575.444	831.09	23.28548	230.55593	1.55885	132.41805	135.05838	115.39593	 	1250.0
340.0	 	35.5027	1.4867	58.35157	4.65903	7.77235	7.12111	-3.77511	30.08056	31.91269	0.62607	1.59727	182.6385	156.57112	69.94508	0.30559	 	8.71496E17	611.116	872.282	25.54548	223.23138	1.46491	132.73275	135.37699	115.725	 	1255.0
335.0	 	32.00561	1.4855	61.85362	4.65527	7.76776	7.12532	-3.75766	29.82271	32.81796	0.60383	1.65609	183.75962	157.06656	70.40551	0.30501	 	1.32041E18	643.589	909.132	27.44265	216.33394	1.37949	133.03827	135.68681	116.04451	 	1260.0
330.0	 	28.85509	1.4844	65.00865	4.65185	7.76376	7.12899	-3.74241	29.58427	33.68592	0.58344	1.71398	184.81899	157.53935	70.84047	0.30447	 	2.01366E18	673.179	942.206	29.05411	209.82477	1.30183	133.33475	135.988	116.35462	 	1265.0
325.0	 	26.01646	1.48342	67.85136	4.64877	7.76028	7.13218	-3.72916	29.36343	34.51432	0.56471	1.77081	185.82153	157.99064	71.252	0.30397	 	3.09139E18	700.167	971.977	30.4368	203.66863	1.23123	133.62236	136.28071	116.65551	 	1270.0
320.0	 	23.45854	1.48252	70.41298	4.64596	7.75728	7.13494	-3.71771	29.1585	35.30196	0.5475	1.82649	186.77174	158.42147	71.64199	0.30351	 	4.77825E18	724.811	998.85	31.63344	197.83419	1.16689	133.90125	136.5651	116.94733	 	1275.0
315.0	 	21.15326	1.4817	72.72161	4.64343	7.75471	7.1373	-3.7079	28.968	36.0485	0.53164	1.88097	187.67371	158.83286	72.01214	0.30307	 	7.43689E18	747.342	1023.17	32.67685	192.29158	1.10852	134.17156	136.84131	117.23024	 	1280.0
310.0	 	19.0755	1.48096	74.80242	4.64112	7.75254	7.13931	-3.69959	28.79057	36.7543	0.517	1.93424	188.53116	159.22575	72.364	0.30266	 	1.16569E19	767.971	1045.23	33.59272	187.01536	1.05525	134.43346	137.1095	117.5044	 	1285.0
305.0	 	17.20259	1.48029	76.67809	4.63903	7.75072	7.14099	-3.69262	28.62497	37.42029	0.50344	1.98632	189.34748	159.60102	72.69901	0.30227	 	1.84035E19	786.885	1065.29	34.40161	181.98079	1.00691	134.68709	137.3698	117.76997	 	1290.0
300.0	 	15.51427	1.47968	78.36891	4.63714	7.74921	7.14237	-3.68688	28.4701	38.04779	0.49086	2.03725	190.12577	159.95951	73.01845	0.3019	 	2.92692E19	804.258	1083.58	35.11982	177.16707	0.96274	134.93258	137.62236	118.02709	 	1295.0
295.0	 	13.99214	1.47913	79.89331	4.63542	7.748	7.14349	-3.68224	28.32495	38.63849	0.47914	2.08708	190.86889	160.30204	73.32353	0.30155	 	4.69004E19	820.243	1100.3	35.76094	172.55382	0.92265	135.17009	137.86731	118.27591	 	1300.0
290.0	 	12.61975	1.47863	81.26775	4.63386	7.74705	7.14436	-3.67861	28.18861	39.19421	0.46819	2.1359	191.57943	160.62937	73.61531	0.30122	 	7.57287E19	834.983	1115.62	36.33595	168.12342	0.88608	135.39975	138.1048	118.51659	 	1305.0
285.0	 	11.38227	1.47818	82.5071	4.63245	7.74634	7.14502	-3.6759	28.06027	39.7169	0.45792	2.18377	192.25978	160.94223	73.8948	0.3009	 	1.2323399999999998E20	848.603	1129.68	36.85402	163.85962	0.85276	135.62171	138.33496	118.74926	 	1310.0
280.0	 	10.26655	1.47777	83.62452	4.63117	7.74585	7.14547	-3.674	27.93919	40.20845	0.44827	2.23078	192.91209	161.24129	74.1629	0.3006	 	2.02141E20	861.218	1142.64	37.3228	159.74798	0.82233	135.83611	138.55793	118.97408	 	1315.0
275.0	 	9.26031	1.47739	84.63229	4.63001	7.74555	7.14575	-3.67286	27.82469	40.67089	0.43917	2.27702	193.53841	161.52724	74.42047	0.3003	 	3.3427299999999997E20	872.935	1154.61	37.74897	155.77483	0.79463	136.04306	138.77383	119.19118	 	1320.0
270.0	 	8.35294	1.47705	85.54105	4.62896	7.74543	7.14586	-3.67239	27.71616	41.10603	0.43056	2.32257	194.14054	161.80067	74.66824	0.30002	 	5.5736899999999997E20	883.845	1165.7	38.13793	151.92826	0.76932	136.24272	138.98281	119.40069	 	1325.0
265.0	 	7.53461	1.47674	86.36063	4.62801	7.74547	7.14582	-3.67254	27.61306	41.51564	0.42239	2.3675	194.72018	162.0622	74.90693	0.29975	 	9.372459999999999E20	894.036	1176.0	38.49449	148.19742	0.74617	136.4352	139.18498	119.60276	 	1330.0
260.0	 	6.79658	1.47646	87.09981	4.62714	7.74565	7.14566	-3.67324	27.51489	41.90137	0.41461	2.41191	195.27888	162.31237	75.13717	0.29948	 	1.58968E21	903.586	1185.6	38.82273	144.57222	0.72504	136.62065	139.38047	119.79752	 	1335.0
255.0	 	6.13096	1.47621	87.76647	4.62636	7.74596	7.14537	-3.67444	27.4212	42.2647	0.40719	2.45586	195.81804	162.5517	75.35956	0.29922	 	2.72016E21	912.563	1194.58	39.12625	141.04357	0.70573	136.79917	139.56942	119.9851	 	1340.0
250.0	 	5.5306	1.47598	88.36776	4.62565	7.7464	7.14497	-3.6761	27.33159	42.60701	0.40009	2.49941	196.33896	162.7807	75.57463	0.29897	 	4.69665E21	921.034	1203.01	39.40806	137.60344	0.68803	136.97091	139.75193	120.16563	 	1345.0
245.0	 	4.9891	1.47577	88.91012	4.62501	7.74694	7.14447	-3.67817	27.24569	42.92953	0.39329	2.54263	196.84283	162.99984	75.78287	0.29873	 	8.1843E21	929.056	1210.95	39.6709	134.24443	0.6718	137.13599	139.92815	120.33925	 	1350.0
240.0	 	4.50067	1.47558	89.39932	4.62443	7.74758	7.14388	-3.68061	27.16316	43.23339	0.38676	2.58558	197.33074	163.20954	75.98473	0.29849	 	1.43968E22	936.682	1218.45	39.91709	130.95977	0.65693	137.2945	140.09817	120.50607	 	1355.0
235.0	 	4.06011	1.47541	89.84059	4.6239	7.7483	7.14321	-3.68338	27.08371	43.48353	0.38079	2.62612	197.80367	163.41022	76.18062	0.29825	 	2.55708E22	943.961	1225.58	40.14874	127.74338	0.64328	137.44662	140.26213	120.66622	 	1360.0
230.0	 	3.66271	1.47525	90.23862	4.62342	7.74911	7.14247	-3.68646	27.00707	43.74738	0.37477	2.66831	198.26253	163.60226	76.37091	0.29802	 	4.58689E22	950.936	1232.37	40.36767	124.58966	0.63074	137.59243	140.42015	120.81985	 	1365.0
225.0	 	3.30424	1.47511	90.59767	4.62299	7.74998	7.14166	-3.68982	26.93298	43.99596	0.36895	2.71041	198.70816	163.78602	76.55595	0.2978	 	8.31197E22	957.648	1238.86	40.57544	121.49375	0.61918	137.73206	140.57232	120.96704	 	1370.0
220.0	 	2.98088	1.47498	90.92155	4.6226	7.75092	7.14079	-3.69342	26.86122	44.23022	0.36331	2.75247	199.14131	163.96183	76.73604	0.29757	 	1.5220299999999998E23	964.135	1245.1	40.77356	118.45099	0.60855	137.86561	140.71878	121.10793	 	1375.0
215.0	 	2.68917	1.47486	91.21373	4.62224	7.75192	7.13987	-3.69724	26.7916	44.45103	0.35784	2.79454	199.56268	164.13	76.91148	0.29735	 	2.81711E23	970.43	1251.13	40.96337	115.45736	0.59872	137.99322	140.85964	121.24266	 	1380.0
210.0	 	2.42603	1.47475	91.4773	4.62192	7.75298	7.1389	-3.70127	26.72394	44.65918	0.35252	2.83668	199.97288	164.29081	77.08251	0.29714	 	5.27219E23	976.564	1256.96	41.14591	112.50912	0.58965	138.11499	140.99499	121.37131	 	1385.0
205.0	 	2.18866	1.47466	91.71506	4.62163	7.75408	7.13789	-3.70547	26.65805	44.85541	0.34735	2.87894	200.37251	164.44455	77.24938	0.29692	 	9.980119999999999E23	982.565	1262.63	41.32226	109.60281	0.58126	138.23102	141.12496	121.49401	 	1390.0
200.0	 	1.97452	1.47457	91.92955	4.62136	7.75522	7.13684	-3.70984	26.59381	45.04038	0.34231	2.92136	200.76209	164.59145	77.4123	0.29671	 	1.91163E24	988.462	1268.17	41.49349	106.73551	0.57346	138.34144	141.24965	121.61088	 	1395.0
195.0	 	1.78134	1.47449	92.12304	4.62113	7.7564	7.13575	-3.71435	26.53107	45.21472	0.33738	2.96399	201.14209	164.73176	77.57147	0.2965	 	3.7065700000000003E24	994.276	1273.61	41.66023	103.9042	0.56626	138.44636	141.36919	121.72203	 	1400.0
190.0	 	1.60706	1.47442	92.29761	4.62091	7.75762	7.13463	-3.71899	26.4697	45.37901	0.33257	3.00688	201.51297	164.86569	77.72706	0.29629	 	7.27835E24	1000.03	1278.96	41.82342	101.1067	0.5595	138.54587	141.48365	121.82757	 	1405.0
185.0	 	1.44985	1.47435	92.45508	4.62072	7.75886	7.13349	-3.72375	26.4096	45.47944	0.32825	3.04642	201.87512	164.99344	77.87925	0.29608	 	1.44808E25	1005.75	1284.24	41.98357	98.34042	0.55326	138.64009	141.59316	121.9276	 	1410.0
180.0	 	1.30802	1.47429	92.59715	4.62054	7.76014	7.13231	-3.72862	26.35067	45.62476	0.32364	3.08987	202.22891	165.1152	78.02818	0.29587	 	2.92064E25	1011.46	1289.49	42.14157	95.60352	0.54738	138.72913	141.6978	122.02225	 	1415.0
175.0	 	1.18006	1.47424	92.72532	4.62038	7.76144	7.13112	-3.73358	26.29282	45.76168	0.31911	3.13372	202.57468	165.23116	78.174	0.29567	 	5.974770000000001E25	1017.17	1294.7	42.2978	92.89406	0.54189	138.81308	141.7977	122.1116	 	1420.0
170.0	 	1.06463	1.47419	92.84094	4.62024	7.76276	7.1299	-3.73862	26.23596	45.8906	0.31466	3.17801	202.9125	165.34128	78.31672	0.29546	 	1.2404600000000002E26	1022.89	1299.92	42.45284	90.21029	0.53676	138.89204	141.89294	122.19577	 	1425.0
165.0	 	0.96049	1.47414	92.94526	4.62011	7.76411	7.12867	-3.74374	26.18002	46.0119	0.31029	3.22277	203.24421	165.44699	78.45707	0.29526	 	2.6153500000000003E26	1028.66	1305.14	42.60735	87.55079	0.5319	138.96615	141.98364	122.27487	 	1430.0
160.0	 	0.86653	1.4741	93.03937	4.62	7.76547	7.12742	-3.74893	26.12493	46.12591	0.30599	3.26805	203.56787	165.54662	78.5943	0.29505	 	5.6034700000000005E26	1034.48	1310.39	42.76159	84.91407	0.52734	139.03546	142.06987	122.34899	 	1435.0
155.0	 	0.78178	1.47406	93.12427	4.6199	7.76684	7.12616	-3.75417	26.07062	46.23295	0.30176	3.31389	203.88461	165.64107	78.72886	0.29485	 	1.22087E27	1040.37	1315.68	42.91611	82.29885	0.52304	139.10009	142.15174	122.41824	 	1440.0
150.0	 	0.70531	1.47403	93.20086	4.6198	7.76823	7.12488	-3.75946	26.01705	46.33331	0.29759	3.36033	204.19765	165.73288	78.862	0.29465	 	2.70703E27	1046.34	1321.02	43.07133	79.70416	0.51894	139.16016	142.22935	122.48271	 	1445.0
145.0	 	0.63632	1.474	93.26997	4.61972	7.76964	7.1236	-3.7648	25.96417	46.42726	0.29348	3.4074	204.501	165.81713	78.99139	0.29445	 	6.11326E27	1052.42	1326.44	43.2276	77.12885	0.51506	139.21573	142.30281	122.54251	 	1450.0
140.0	 	0.57408	1.47397	93.33231	4.61964	7.77105	7.1223	-3.77018	25.91192	46.51506	0.28942	3.45516	204.79812	165.89661	79.11838	0.29425	 	1.4072500000000002E28	1058.61	1331.94	43.38532	74.57197	0.51138	139.26692	142.37217	122.59772	 	1455.0
135.0	 	0.51793	1.47394	93.38855	4.61958	7.77247	7.12099	-3.7756	25.86026	46.59693	0.28542	3.50364	205.08922	165.97147	79.24306	0.29405	 	3.30497E28	1064.93	1337.55	43.54482	72.03277	0.50784	139.31382	142.43755	122.64845	 	1460.0
130.0	 	0.46727	1.47392	93.43929	4.61952	7.77391	7.11968	-3.78104	25.80917	46.67312	0.28146	3.5529	205.37451	166.04182	79.3655	0.29385	 	7.92619E28	1071.4	1343.26	43.70649	69.51042	0.50447	139.35652	142.49905	122.6948	 	1465.0
125.0	 	0.42157	1.4739	93.48507	4.61946	7.77535	7.11837	-3.78651	25.75859	46.74382	0.27755	3.60296	205.65419	166.10781	79.48578	0.29365	 	1.9430400000000003E29	1078.03	1349.1	43.87054	67.00434	0.50122	139.39513	142.55675	122.73684	 	1470.0
120.0	 	0.38034	1.47388	93.52637	4.61941	7.77679	7.11704	-3.792	25.7085	46.80924	0.27368	3.65389	205.92844	166.16957	79.60399	0.29346	 	4.87371E29	1084.83	1355.09	44.03753	64.51385	0.4981	139.42971	142.61072	122.77467	 	1475.0
115.0	 	0.34314	1.47386	93.56363	4.61937	7.77824	7.11571	-3.79751	25.65888	46.86956	0.26985	3.70573	206.19745	166.22723	79.72019	0.29326	 	1.25216E30	1091.82	1361.23	44.20755	62.03839	0.49509	139.46037	142.66107	122.80839	 	1480.0
110.0	 	0.30957	1.47385	93.59724	4.61934	7.7797	7.11438	-3.80304	25.60969	46.92495	0.26606	3.75852	206.46142	166.28094	79.83445	0.29306	 	3.29888E30	1099.02	1367.54	44.38106	59.57745	0.49219	139.48722	142.70788	122.83809	 	1485.0
105.0	 	0.2793	1.47383	93.62757	4.61931	7.78116	7.11305	-3.80858	25.56092	46.97557	0.26231	3.81233	206.72052	166.33082	79.94686	0.29286	 	8.92246E30	1106.45	1374.03	44.5583	57.13068	0.48935	139.51032	142.75122	122.86384	 	1490.0
100.0	 	0.25198	1.47382	93.65493	4.61928	7.78262	7.11171	-3.81412	25.51254	47.02157	0.25859	3.86719	206.97496	166.37703	80.05748	0.29266	 	2.4805199999999997E31	1114.11	1380.73	44.73969	54.69768	0.4866	139.52976	142.79119	122.88573	 	1495.0
95.0	 	0.22733	1.4738	93.67961	4.61925	7.78408	7.11038	-3.81968	25.46452	47.06307	0.2549	3.92318	207.22491	166.4197	80.16639	0.29247	 	7.09737E31	1122.04	1387.65	44.92539	52.27805	0.48393	139.54565	142.82788	122.90387	 	1500.0
90.0	 	0.2051	1.47379	93.70188	4.61923	7.78555	7.10904	-3.82524	25.41687	47.1002	0.25124	3.98033	207.47058	166.45899	80.27366	0.29227	 	2.09282E32	1130.23	1394.8	45.11594	49.8715	0.48131	139.55805	142.86135	122.91831	 	1505.0
85.0	 	0.18504	1.47378	93.72197	4.61921	7.78702	7.1077	-3.8308	25.36954	47.13305	0.2476	4.03871	207.71215	166.49505	80.37937	0.29207	 	6.3687299999999996E32	1138.73	1402.2	45.31148	47.4778	0.47874	139.56708	142.89169	122.92915	 	1510.0
80.0	 	0.16694	1.47377	93.74009	4.61919	7.78849	7.10635	-3.83637	25.32254	47.16173	0.244	4.09839	207.94985	166.52804	80.48361	0.29188	 	2.00311E33	1147.54	1409.87	45.51253	45.09671	0.47622	139.57279	142.91897	122.93646	 	1515.0
75.0	 	0.15061	1.47376	93.75644	4.61918	7.78996	7.10501	-3.84193	25.27585	47.18631	0.24042	4.15941	208.18388	166.55814	80.58645	0.29168	 	6.52167E33	1156.69	1417.84	45.71926	42.728	0.47374	139.5753	142.94328	122.94032	 	1520.0
70.0	 	0.13588	1.47376	93.77119	4.61917	7.79143	7.10367	-3.84749	25.22946	47.20686	0.23686	4.22186	208.41447	166.5855	80.68798	0.29148	 	2.20153E34	1166.2	1426.11	45.93215	40.37155	0.47129	139.57468	142.9647	122.94083	 	1525.0
65.0	 	0.12259	1.47375	93.7845	4.61916	7.79289	7.10233	-3.85305	25.18335	47.22344	0.23333	4.28579	208.64185	166.61033	80.7883	0.29129	 	7.718820000000001E34	1176.1	1434.72	46.1516	38.02722	0.46887	139.57101	142.98328	122.93804	 	1530.0
60.0	 	0.1106	1.47374	93.7965	4.61915	7.79436	7.101	-3.85861	25.13751	47.23611	0.22982	4.35128	208.86627	166.63281	80.88749	0.29109	 	2.8159199999999996E35	1186.42	1443.7	46.37796	35.69492	0.46646	139.56438	142.99911	122.93203	 	1535.0
55.0	 	0.0997845	1.47373	93.80733	4.61915	7.79583	7.09966	-3.86416	25.09193	47.24492	0.22633	4.4184	209.08798	166.65316	80.98566	0.2909	 	1.0709499999999999E36	1197.18	1453.05	46.61156	33.37456	0.46407	139.55487	143.01225	122.92288	 	1540.0
50.0	 	0.0900244	1.47373	93.81711	4.61914	7.7973	7.09832	-3.8697	25.04662	47.2499	0.22285	4.48724	209.30726	166.67158	81.08291	0.2907	 	4.2547599999999995E36	1208.41	1462.82	46.85296	31.06609	0.4617	139.54258	143.02278	122.91065	 	1545.0
45.0	 	0.0812193	1.47372	93.82592	4.61914	7.79876	7.09699	-3.87524	25.00154	47.2511	0.2194	4.55787	209.5244	166.68832	81.17937	0.2905	 	1.76958E37	1220.15	1473.04	47.10259	28.76948	0.45932	139.52758	143.03078	122.89542	 	1550.0
40.0	 	0.0732754	1.47372	93.83387	4.61914	7.80023	7.09566	-3.88077	24.95671	47.24855	0.21596	4.6304	209.74046	166.7042	81.27542	0.29031	 	7.722189999999999E37	1232.43	1483.73	47.36092	26.48474	0.45695	139.50997	143.03628	122.87725	 	1555.0
35.0	 	0.0661084	1.47371	93.84104	4.61914	7.80169	7.09433	-3.88629	24.91211	47.24227	0.21254	4.70491	209.95429	166.71832	81.37064	0.29011	 	3.54434E38	1245.3	1494.93	47.62834	24.21189	0.45457	139.48981	143.03938	122.85622	 	1560.0
30.0	 	0.0596425	1.47371	93.8475	4.61914	7.80315	7.093	-3.8918	24.86773	47.23231	0.20914	4.7815	210.16697	166.73154	81.46545	0.28991	 	1.71542E39	1258.79	1506.68	47.90553	21.95098	0.45218	139.46723	143.04015	122.83238	 	1565.0
25.0	 	0.0538088	1.4737	93.85334	4.61914	7.80461	7.09167	-3.8973	24.82358	47.21869	0.20575	4.86028	210.37861	166.74394	81.55987	0.28972	 	8.77869E39	1272.96	1519.02	48.19302	19.70213	0.44977	139.44228	143.03861	122.80579	 	1570.0
